Model,MSO4034B
Firmware Version,2.52

Waveform Type,ANALOG,
Point Format,Y,
Horizontal Units,s,
Horizontal Scale,4e-07,
Horizontal Delay,2.62e-08,
Sample Interval,4e-10,
Record Length,10000,
Gating,49.1100% to 51.6100%,
Probe Attenuation,1,
Vertical Units,V,
Vertical Offset,0,
Vertical Scale,0.02,
Vertical Position,-4.98,
,,
,,
,,
Label,,
TIME,CH1,CH4
-9.4000e-09,0.0531156,-0.00748438
-9.0000e-09,0.0530813,-0.00745313
-8.6000e-09,0.0530375,-0.00751562
-8.2000e-09,0.0530906,-0.007375
-7.8000e-09,0.0531875,-0.00720313
-7.4000e-09,0.0531625,-0.0073125
-7.0000e-09,0.0529844,-0.00765625
-6.6000e-09,0.0532781,-0.00695313
-6.2000e-09,0.0531531,-0.00723438
-5.8000e-09,0.0531594,-0.00757813
-5.4000e-09,0.0530188,-0.00753125
-5.0000e-09,0.0530875,-0.00745313
-4.6000e-09,0.0531281,-0.00715625
-4.2000e-09,0.0531625,-0.00701562
-3.8000e-09,0.0530813,-0.00740625
-3.4000e-09,0.0531281,-0.00742188
-3.0000e-09,0.0531875,-0.00717188
-2.6000e-09,0.0531375,-0.00745313
-2.2000e-09,0.0530031,-0.00748438
-1.8000e-09,0.0530813,-0.00714063
-1.4000e-09,0.0530719,-0.0073125
-1.0000e-09,0.0531094,-0.00754688
-6.0000e-10,0.05305,-0.00370313
-2.0000e-10,0.0531531,0.0525313
2.0000e-10,0.0530906,0.201984
6.0000e-10,0.0531188,0.358078
1.0000e-09,0.0530563,0.439641
1.4000e-09,0.0531563,0.465187
1.8000e-09,0.0531281,0.474516
2.2000e-09,0.0532625,0.481922
2.6000e-09,0.0531563,0.483906
3.0000e-09,0.0531938,0.482672
3.4000e-09,0.0530969,0.480875
3.8000e-09,0.0531219,0.479922
4.2000e-09,0.05305,0.479437
4.6000e-09,0.0530781,0.480609
5.0000e-09,0.0531438,0.481906
5.4000e-09,0.0531469,0.481781
5.8000e-09,0.0530125,0.481453
6.2000e-09,0.0532531,0.483172
6.6000e-09,0.0531125,0.482797
7.0000e-09,0.0531438,0.483422
7.4000e-09,0.0530344,0.483484
7.8000e-09,0.0531188,0.483359
8.2000e-09,0.0531281,0.483141
8.6000e-09,0.0532,0.48375
9.0000e-09,0.0530844,0.483266
9.4000e-09,0.0530844,0.485328
9.8000e-09,0.0531031,0.488625
1.0200e-08,0.0531188,0.488609
1.0600e-08,0.0530125,0.481328
1.1000e-08,0.0531313,0.476562
1.1400e-08,0.0531063,0.476406
1.1800e-08,0.0531156,0.478047
1.2200e-08,0.0530625,0.478563
1.2600e-08,0.0531563,0.479531
1.3000e-08,0.0531188,0.479281
1.3400e-08,0.0531125,0.478672
1.3800e-08,0.053125,0.478437
1.4200e-08,0.0531656,0.479
1.4600e-08,0.0531313,0.478578
1.5000e-08,0.0532281,0.477922
1.5400e-08,0.0531656,0.47675
1.5800e-08,0.0531594,0.477984
1.6200e-08,0.0530875,0.478656
1.6600e-08,0.0531438,0.477437
1.7000e-08,0.0530344,0.475109
1.7400e-08,0.0530625,0.473391
1.7800e-08,0.05315,0.474313
1.8200e-08,0.0531531,0.474578
1.8600e-08,0.0530281,0.474953
1.9000e-08,0.0532875,0.474844
1.9400e-08,0.0532281,0.474406
1.9800e-08,0.0531313,0.473781
2.0200e-08,0.0529969,0.472938
2.0600e-08,0.0530875,0.472828
2.1000e-08,0.0530969,0.472109
2.1400e-08,0.0531125,0.471969
2.1800e-08,0.0530813,0.471313
2.2200e-08,0.0530906,0.471391
2.2600e-08,0.0531563,0.47125
2.3000e-08,0.0531563,0.470797
2.3400e-08,0.0530938,0.470313
2.3800e-08,0.0531438,0.470172
2.4200e-08,0.0531219,0.469484
2.4600e-08,0.0531,0.469234
2.5000e-08,0.0530438,0.468969
2.5400e-08,0.0531656,0.469094
2.5800e-08,0.0531563,0.468484
2.6200e-08,0.0531344,0.468375
2.6600e-08,0.0530781,0.468156
2.7000e-08,0.0530875,0.467969
2.7400e-08,0.0530344,0.467797
2.7800e-08,0.0532031,0.467406
2.8200e-08,0.0531531,0.466656
2.8600e-08,0.0531438,0.466531
2.9000e-08,0.0530813,0.465719
2.9400e-08,0.0530688,0.465609
2.9800e-08,0.053025,0.465187
3.0200e-08,0.0530563,0.465063
3.0600e-08,0.0531469,0.464641
3.1000e-08,0.0531375,0.464641
3.1400e-08,0.0530875,0.464187
3.1800e-08,0.0532938,0.464672
3.2200e-08,0.0531969,0.464313
3.2600e-08,0.0531813,0.464109
3.3000e-08,0.0530563,0.464
3.3400e-08,0.0531063,0.46375
3.3800e-08,0.0531156,0.463688
3.4200e-08,0.0531438,0.463547
3.4600e-08,0.05305,0.462859
3.5000e-08,0.0531031,0.462953
3.5400e-08,0.0531813,0.462938
3.5800e-08,0.0531094,0.462359
3.6200e-08,0.0530594,0.461344
3.6600e-08,0.0531313,0.461469
3.7000e-08,0.0530781,0.460938
3.7400e-08,0.0531094,0.4605
3.7800e-08,0.0530156,0.460328
3.8200e-08,0.0531406,0.460141
3.8600e-08,0.0531281,0.460047
3.9000e-08,0.0531594,0.459656
3.9400e-08,0.0530469,0.459797
3.9800e-08,0.0531531,0.4595
4.0200e-08,0.0530813,0.459219
4.0600e-08,0.0531969,0.459219
4.1000e-08,0.0531156,0.458906
4.1400e-08,0.0531875,0.458719
4.1800e-08,0.0531063,0.458
4.2200e-08,0.0531,0.458281
4.2600e-08,0.0530406,0.457516
4.3000e-08,0.0530625,0.457453
4.3400e-08,0.0531438,0.457531
4.3800e-08,0.0530438,0.456797
4.4200e-08,0.0530313,0.456406
4.4600e-08,0.0534875,0.456906
4.5000e-08,0.0554594,0.456437
4.5400e-08,0.0617625,0.456172
4.5800e-08,0.0759188,0.456016
4.6200e-08,0.0983656,0.455766
4.6600e-08,0.125381,0.455469
4.7000e-08,0.150603,0.455344
4.7400e-08,0.168197,0.454578
4.7800e-08,0.176209,0.454359
4.8200e-08,0.1755,0.4545
4.8600e-08,0.170213,0.453828
4.9000e-08,0.164703,0.453984
4.9400e-08,0.161525,0.445828
4.9800e-08,0.160988,0.37175
5.0200e-08,0.161588,0.213203
5.0600e-08,0.161947,0.0694687
5.1000e-08,0.161138,0.000640625
5.1400e-08,0.159159,-0.0242188
5.1800e-08,0.157213,-0.0352656
5.2200e-08,0.156344,-0.0413125
5.2600e-08,0.157331,-0.0427031
5.3000e-08,0.159491,-0.0422813
5.3400e-08,0.162006,-0.0401563
5.3800e-08,0.1634,-0.0394688
5.4200e-08,0.163425,-0.0400938
5.4600e-08,0.162275,-0.0411094
5.5000e-08,0.16075,-0.0419063
5.5400e-08,0.159578,-0.0429844
5.5800e-08,0.159319,-0.043375
5.6200e-08,0.160075,-0.0435
5.6600e-08,0.161031,-0.0436406
5.7000e-08,0.161675,-0.0440625
5.7400e-08,0.161894,-0.044125
5.7800e-08,0.161272,-0.0444844
5.8200e-08,0.160541,-0.0443594
5.8600e-08,0.159988,-0.0449063
5.9000e-08,0.159878,-0.0459844
5.9400e-08,0.160122,-0.0479375
5.9800e-08,0.160675,-0.0506875
6.0200e-08,0.161013,-0.049625
6.0600e-08,0.161106,-0.0436406
6.1000e-08,0.160953,-0.0402031
6.1400e-08,0.160484,-0.041
6.1800e-08,0.160059,-0.0429531
6.2200e-08,0.159825,-0.0433281
6.2600e-08,0.159784,-0.0436406
6.3000e-08,0.159947,-0.0438281
6.3400e-08,0.159928,-0.0437969
6.3800e-08,0.159975,-0.0439063
6.4200e-08,0.159909,-0.0441563
6.4600e-08,0.159741,-0.0442188
6.5000e-08,0.159669,-0.0437813
6.5400e-08,0.159653,-0.0435938
6.5800e-08,0.159603,-0.0449375
6.6200e-08,0.159756,-0.0450312
6.6600e-08,0.159666,-0.0438125
6.7000e-08,0.159644,-0.0419688
6.7400e-08,0.159475,-0.0424844
6.7800e-08,0.15935,-0.0424688
6.8200e-08,0.159209,-0.0429531
6.8600e-08,0.159059,-0.0430781
6.9000e-08,0.159003,-0.0431563
6.9400e-08,0.158931,-0.0431875
6.9800e-08,0.158709,-0.0433281
7.0200e-08,0.158881,-0.0430312
7.0600e-08,0.158763,-0.0428594
7.1000e-08,0.158681,-0.0422031
7.1400e-08,0.158528,-0.042875
7.1800e-08,0.158388,-0.0428125
7.2200e-08,0.158313,-0.0425156
7.2600e-08,0.1583,-0.0424688
7.3000e-08,0.15815,-0.0426719
7.3400e-08,0.158122,-0.0423906
7.3800e-08,0.158063,-0.0419375
7.4200e-08,0.157944,-0.042
7.4600e-08,0.157694,-0.0424375
7.5000e-08,0.157694,-0.0416406
7.5400e-08,0.157634,-0.0424219
7.5800e-08,0.157513,-0.0420469
7.6200e-08,0.157534,-0.0423281
7.6600e-08,0.157472,-0.0413281
7.7000e-08,0.157347,-0.0413906
7.7400e-08,0.157244,-0.0419375
7.7800e-08,0.1571,-0.042125
7.8200e-08,0.157091,-0.0414844
7.8600e-08,0.156894,-0.0418437
7.9000e-08,0.156934,-0.0414219
7.9400e-08,0.156741,-0.0415156
7.9800e-08,0.156656,-0.0414063
8.0200e-08,0.156522,-0.0418594
8.0600e-08,0.156466,-0.0411563
8.1000e-08,0.156363,-0.0415156
8.1400e-08,0.156278,-0.0417187
8.1800e-08,0.156272,-0.0408437
8.2200e-08,0.156138,-0.0410625
8.2600e-08,0.156031,-0.0408594
8.3000e-08,0.155972,-0.040875
8.3400e-08,0.155759,-0.0414531
8.3800e-08,0.155734,-0.0411875
8.4200e-08,0.155594,-0.0410625
8.4600e-08,0.155606,-0.0408437
8.5000e-08,0.155503,-0.0411094
8.5400e-08,0.155484,-0.0406094
8.5800e-08,0.155369,-0.040875
8.6200e-08,0.155297,-0.0406563
8.6600e-08,0.155209,-0.0407656
8.7000e-08,0.155063,-0.0407656
8.7400e-08,0.154975,-0.0407813
8.7800e-08,0.154891,-0.0408281
8.8200e-08,0.154778,-0.0408125
8.8600e-08,0.154681,-0.0407344
8.9000e-08,0.154569,-0.0411406
8.9400e-08,0.154559,-0.0404844
8.9800e-08,0.154456,-0.0404219
9.0200e-08,0.154409,-0.0406875

